  Detailed Percentile spectrum:
       Value   Percentile   TotalCount 1/(1-Percentile)

       1.245     0.000000            1         1.00
       2.191     0.100000       122666         1.11
       2.629     0.200000       245482         1.25
       3.195     0.300000       367763         1.43
       4.291     0.400000       490408         1.67
       6.367     0.500000       612804         2.00
       8.327     0.550000       674180         2.22
      11.191     0.600000       735458         2.50
      13.743     0.650000       796577         2.86
      16.959     0.700000       857944         3.33
      21.743     0.750000       919137         4.00
      25.167     0.775000       949777         4.44
      29.631     0.800000       980413         5.00
      35.967     0.825000      1011023         5.71
      46.111     0.850000      1041694         6.67
      64.031     0.875000      1072280         8.00
      79.231     0.887500      1087591         8.89
     103.743     0.900000      1102931        10.00
     144.127     0.912500      1118222        11.43
     204.543     0.925000      1133558        13.33
     291.839     0.937500      1148881        16.00
     347.647     0.943750      1156522        17.78
     414.463     0.950000      1164192        20.00
     493.311     0.956250      1171848        22.86
     589.823     0.962500      1179505        26.67
     702.975     0.968750      1187177        32.00
     769.535     0.971875      1191004        35.56
     843.263     0.975000      1194826        40.00
     927.231     0.978125      1198667        45.71
    1023.999     0.981250      1202485        53.33
    1138.687     0.984375      1206325        64.00
    1201.151     0.985938      1208224        71.11
    1268.735     0.987500      1210153        80.00
    1345.535     0.989062      1212058        91.43
    1428.479     0.990625      1213970       106.67
    1519.615     0.992188      1215885       128.00
    1569.791     0.992969      1216834       142.22
    1622.015     0.993750      1217792       160.00
    1676.287     0.994531      1218760       182.86
    1738.751     0.995313      1219706       213.33
    1810.431     0.996094      1220670       256.00
    1850.367     0.996484      1221149       284.44
    1895.423     0.996875      1221628       320.00
    1945.599     0.997266      1222106       365.71
    1999.871     0.997656      1222578       426.67
    2062.335     0.998047      1223059       512.00
    2099.199     0.998242      1223301       568.89
    2138.111     0.998437      1223544       640.00
    2179.071     0.998633      1223775       731.43
    2222.079     0.998828      1224016       853.33
    2273.279     0.999023      1224254      1024.00
    2301.951     0.999121      1224373      1137.78
    2332.671     0.999219      1224490      1280.00
    2373.631     0.999316      1224611      1462.86
    2418.687     0.999414      1224729      1706.67
    2484.223     0.999512      1224849      2048.00
    2519.039     0.999561      1224910      2275.56
    2572.287     0.999609      1224972      2560.00
    2635.775     0.999658      1225030      2925.71
    2703.359     0.999707      1225090      3413.33
    2758.655     0.999756      1225148      4096.00
    2783.231     0.999780      1225178      4551.11
    2820.095     0.999805      1225211      5120.00
    2850.815     0.999829      1225238      5851.43
    2885.631     0.999854      1225270      6826.67
    2914.303     0.999878      1225299      8192.00
    2928.639     0.999890      1225313      9102.22
    2955.263     0.999902      1225329     10240.00
    2988.031     0.999915      1225343     11702.86
    3016.703     0.999927      1225359     13653.33
    3043.327     0.999939      1225373     16384.00
    3057.663     0.999945      1225380     18204.44
    3080.191     0.999951      1225388     20480.00
    3092.479     0.999957      1225395     23405.71
    3123.199     0.999963      1225404     27306.67
    3143.679     0.999969      1225411     32768.00
    3166.207     0.999973      1225415     36408.89
    3176.447     0.999976      1225418     40960.00
    3192.831     0.999979      1225422     46811.43
    3231.743     0.999982      1225426     54613.33
    3235.839     0.999985      1225429     65536.00
    3244.031     0.999986      1225431     72817.78
    3256.319     0.999988      1225433     81920.00
    3258.367     0.999989      1225434     93622.86
    3287.039     0.999991      1225436    109226.67
    3293.183     0.999992      1225438    131072.00
    3295.231     0.999993      1225439    145635.56
    3297.279     0.999994      1225440    163840.00
    3299.327     0.999995      1225441    187245.71
    3301.375     0.999995      1225442    218453.33
    3307.519     0.999996      1225443    262144.00
    3307.519     0.999997      1225443    291271.11
    3346.431     0.999997      1225445    327680.00
    3346.431     0.999997      1225445    374491.43
    3346.431     0.999998      1225445    436906.67
    3346.431     0.999998      1225445    524288.00
    3346.431     0.999998      1225445    582542.22
    3348.479     0.999998      1225446    655360.00
    3348.479     0.999999      1225446    748982.86
    3348.479     0.999999      1225446    873813.33
    3348.479     0.999999      1225446   1048576.00
    3348.479     0.999999      1225446   1165084.44
    3356.671     0.999999      1225447   1310720.00
    3356.671     1.000000      1225447          inf
#[Mean    =       71.713, StdDeviation   =      243.312]
#[Max     =     3354.624, Total count    =      1225447]
#[Buckets =           27, SubBuckets     =         2048]