  Detailed Percentile spectrum:
       Value   Percentile   TotalCount 1/(1-Percentile)

       2.485     0.000000            1         1.00
       5.691     0.100000        55949         1.11
      61.663     0.200000       111839         1.25
     283.135     0.300000       167796         1.43
     536.063     0.400000       223750         1.67
     819.199     0.500000       279603         2.00
     989.183     0.550000       307636         2.22
    1186.815     0.600000       335606         2.50
    1415.167     0.650000       363572         2.86
    1660.927     0.700000       391474         3.33
    1959.935     0.750000       419468         4.00
    2129.919     0.775000       433379         4.44
    2318.335     0.800000       447352         5.00
    2537.471     0.825000       461328         5.71
    2791.423     0.850000       475379         6.67
    3094.527     0.875000       489323         8.00
    3291.135     0.887500       496279         8.89
    3514.367     0.900000       503289        10.00
    3801.087     0.912500       510297        11.43
    4184.063     0.925000       517250        13.33
    4685.823     0.937500       524237        16.00
    5009.407     0.943750       527734        17.78
    5378.047     0.950000       531252        20.00
    5779.455     0.956250       534739        22.86
    6258.687     0.962500       538236        26.67
    6955.007     0.968750       541717        32.00
    7430.143     0.971875       543461        35.56
    7819.263     0.975000       545226        40.00
    8220.671     0.978125       546959        45.71
    8724.479     0.981250       548712        53.33
    9281.535     0.984375       550447        64.00
    9576.447     0.985938       551342        71.11
    9789.439     0.987500       552222        80.00
   10018.815     0.989062       553098        91.43
   10239.999     0.990625       553957       106.67
   10469.375     0.992188       554827       128.00
   10608.639     0.992969       555267       142.22
   10805.247     0.993750       555691       160.00
   11018.239     0.994531       556141       182.86
   11255.807     0.995313       556563       213.33
   11509.759     0.996094       557002       256.00
   11640.831     0.996484       557221       284.44
   11788.287     0.996875       557438       320.00
   11993.087     0.997266       557656       365.71
   12247.039     0.997656       557884       426.67
   12525.567     0.998047       558096       512.00
   12681.215     0.998242       558203       568.89
   12820.479     0.998437       558314       640.00
   12951.551     0.998633       558426       731.43
   13189.119     0.998828       558529       853.33
   13402.111     0.999023       558638      1024.00
   13524.991     0.999121       558694      1137.78
   13680.639     0.999219       558748      1280.00
   13869.055     0.999316       558802      1462.86
   14131.199     0.999414       558859      1706.67
   14352.383     0.999512       558911      2048.00
   14426.111     0.999561       558939      2275.56
   14540.799     0.999609       558968      2560.00
   14606.335     0.999658       558995      2925.71
   14721.023     0.999707       559022      3413.33
   14901.247     0.999756       559048      4096.00
   14991.359     0.999780       559063      4551.11
   15114.239     0.999805       559076      5120.00
   15220.735     0.999829       559091      5851.43
   15343.615     0.999854       559103      6826.67
   15548.415     0.999878       559118      8192.00
   15597.567     0.999890       559124      9102.22
   15745.023     0.999902       559130     10240.00
   15876.095     0.999915       559137     11702.86
   16064.511     0.999927       559144     13653.33
   16277.503     0.999939       559150     16384.00
   16515.071     0.999945       559155     18204.44
   16637.951     0.999951       559157     20480.00
   16908.287     0.999957       559162     23405.71
   17022.975     0.999963       559164     27306.67
   17186.815     0.999969       559168     32768.00
   17219.583     0.999973       559169     36408.89
   17465.343     0.999976       559171     40960.00
   17481.727     0.999979       559174     46811.43
   17481.727     0.999982       559174     54613.33
   17514.495     0.999985       559176     65536.00
   17629.183     0.999986       559177     72817.78
   17760.255     0.999988       559178     81920.00
   17776.639     0.999989       559179     93622.86
   17776.639     0.999991       559179    109226.67
   17907.711     0.999992       559180    131072.00
   18022.399     0.999993       559181    145635.56
   18022.399     0.999994       559181    163840.00
   18137.087     0.999995       559182    187245.71
   18137.087     0.999995       559182    218453.33
   18137.087     0.999996       559182    262144.00
   18186.239     0.999997       559183    291271.11
   18186.239     0.999997       559183    327680.00
   18186.239     0.999997       559183    374491.43
   18186.239     0.999998       559183    436906.67
   18186.239     0.999998       559183    524288.00
   18300.927     0.999998       559184    582542.22
   18300.927     1.000000       559184          inf
#[Mean    =     1470.201, StdDeviation   =     1980.878]
#[Max     =    18284.544, Total count    =       559184]
#[Buckets =           27, SubBuckets     =         2048]